Wavelength	Log of k0	Log of kc	Log of ks	Log of Transmission Coefficients	Log of Reflection Coefficients	Log of Phases
600.00	0.010472	0.010472	0.010472	0.574151	0.425849	-0.685892
601.00	0.010455	0.010455	0.010455	0.691203	0.308797	-0.852239
602.00	0.010437	0.010437	0.010437	0.824134	0.175866	-1.051720
603.00	0.010420	0.010420	0.010420	0.942848	0.057152	-1.285017
604.00	0.010403	0.010403	0.010403	0.999326	0.000674	-1.542133
605.00	0.010385	0.010385	0.010385	0.963136	0.036864	1.339835
606.00	0.010368	0.010368	0.010368	0.854434	0.145566	1.100464
607.00	0.010351	0.010351	0.010351	0.721211	0.278789	0.894101
608.00	0.010334	0.010334	0.010334	0.598774	0.401226	0.721955
609.00	0.010317	0.010317	0.010317	0.500192	0.499808	0.579019
610.00	0.010300	0.010300	0.010300	0.425687	0.574313	0.458806
611.00	0.010283	0.010283	0.010283	0.371233	0.628767	0.355478
612.00	0.010267	0.010267	0.010267	0.332482	0.667518	0.264359
613.00	0.010250	0.010250	0.010250	0.305964	0.694036	0.181820
614.00	0.010233	0.010233	0.010233	0.289236	0.710764	0.105012
615.00	0.010217	0.010217	0.010217	0.280751	0.719249	0.031621
616.00	0.010200	0.010200	0.010200	0.279695	0.720305	-0.040354
617.00	0.010183	0.010183	0.010183	0.285893	0.714107	-0.112763
618.00	0.010167	0.010167	0.010167	0.299768	0.700232	-0.187472
619.00	0.010151	0.010151	0.010151	0.322367	0.677633	-0.266502
620.00	0.010134	0.010134	0.010134	0.355443	0.644557	-0.352195
621.00	0.010118	0.010118	0.010118	0.401517	0.598483	-0.447382
622.00	0.010102	0.010102	0.010102	0.463810	0.536190	-0.555561
623.00	0.010085	0.010085	0.010085	0.545662	0.454338	-0.680979
624.00	0.010069	0.010069	0.010069	0.648634	0.351366	-0.828442
625.00	0.010053	0.010053	0.010053	0.768150	0.231850	-1.002364
626.00	0.010037	0.010037	0.010037	0.886868	0.113132	-1.204480
627.00	0.010021	0.010021	0.010021	0.972259	0.027741	-1.430338
628.00	0.010005	0.010005	0.010005	0.991178	0.008822	1.474398
629.00	0.009989	0.009989	0.009989	0.936992	0.063008	1.244134
630.00	0.009973	0.009973	0.009973	0.835559	0.164441	1.035035
631.00	0.009958	0.009958	0.009958	0.721456	0.278544	0.853630
632.00	0.009942	0.009942	0.009942	0.617365	0.382635	0.699411
633.00	0.009926	0.009926	0.009926	0.531935	0.468065	0.568359
634.00	0.009910	0.009910	0.009910	0.465731	0.534269	0.455628
635.00	0.009895	0.009895	0.009895	0.416303	0.583697	0.356782
636.00	0.009879	0.009879	0.009879	0.380716	0.619284	0.268122
637.00	0.009864	0.009864	0.009864	0.356489	0.643511	0.186653
638.00	0.009848	0.009848	0.009848	0.341829	0.658171	0.109914
639.00	0.009833	0.009833	0.009833	0.335616	0.664384	0.035811
640.00	0.009817	0.009817	0.009817	0.337346	0.662654	-0.037545
641.00	0.009802	0.009802	0.009802	0.347091	0.652909	-0.111978
642.00	0.009787	0.009787	0.009787	0.365492	0.634508	-0.189382
643.00	0.009772	0.009772	0.009772	0.393793	0.606207	-0.271862
644.00	0.009756	0.009756	0.009756	0.433863	0.566137	-0.361878
645.00	0.009741	0.009741	0.009741	0.488136	0.511864	-0.462392
646.00	0.009726	0.009726	0.009726	0.559218	0.440782	-0.576976
647.00	0.009711	0.009711	0.009711	0.648687	0.351313	-0.709760
648.00	0.009696	0.009696	0.009696	0.754278	0.245722	-0.864944
649.00	0.009681	0.009681	0.009681	0.865055	0.134945	-1.045439
650.00	0.009666	0.009666	0.009666	0.957265	0.042735	-1.250347
651.00	0.009652	0.009652	0.009652	0.999423	0.000577	-1.472260
652.00	0.009637	0.009637	0.009637	0.972168	0.027832	1.444224
653.00	0.009622	0.009622	0.009622	0.885477	0.114523	1.231210
654.00	0.009607	0.009607	0.009607	0.769858	0.230142	1.040826
655.00	0.009593	0.009593	0.009593	0.653744	0.346256	0.876602
656.00	0.009578	0.009578	0.009578	0.552451	0.447549	0.736982
657.00	0.009563	0.009563	0.009563	0.470343	0.529657	0.618163
658.00	0.009549	0.009549	0.009549	0.406279	0.593721	0.515979
659.00	0.009534	0.009534	0.009534	0.357334	0.642666	0.426712
660.00	0.009520	0.009520	0.009520	0.320512	0.679488	0.347303
661.00	0.009506	0.009506	0.009506	0.293322	0.706678	0.275302
662.00	0.009491	0.009491	0.009491	0.273881	0.726119	0.208746
663.00	0.009477	0.009477	0.009477	0.260851	0.739149	0.146031
664.00	0.009463	0.009463	0.009463	0.253345	0.746655	0.085806
665.00	0.009448	0.009448	0.009448	0.250852	0.749148	0.026881
666.00	0.009434	0.009434	0.009434	0.253191	0.746809	-0.031856
667.00	0.009420	0.009420	0.009420	0.260486	0.739514	-0.091503
668.00	0.009406	0.009406	0.009406	0.273179	0.726821	-0.153214
669.00	0.009392	0.009392	0.009392	0.292066	0.707934	-0.218274
670.00	0.009378	0.009378	0.009378	0.318360	0.681640	-0.288181
671.00	0.009364	0.009364	0.009364	0.353768	0.646232	-0.364746
672.00	0.009350	0.009350	0.009350	0.400542	0.599458	-0.450199
673.00	0.009336	0.009336	0.009336	0.461409	0.538591	-0.547308
674.00	0.009322	0.009322	0.009322	0.539115	0.460885	-0.659425
675.00	0.009308	0.009308	0.009308	0.635083	0.364917	-0.790359
676.00	0.009295	0.009295	0.009295	0.746435	0.253565	-0.943777
677.00	0.009281	0.009281	0.009281	0.861282	0.138718	-1.121755
678.00	0.009267	0.009267	0.009267	0.955504	0.044496	-1.322390
679.00	0.009254	0.009254	0.009254	0.999182	0.000818	-1.537643
680.00	0.009240	0.009240	0.009240	0.975674	0.024326	1.387460
681.00	0.009226	0.009226	0.009226	0.895614	0.104386	1.183631
682.00	0.009213	0.009213	0.009213	0.787386	0.212614	1.001606
683.00	0.009199	0.009199	0.009199	0.677177	0.322823	0.844241
684.00	0.009186	0.009186	0.009186	0.579542	0.420458	0.709960
685.00	0.009173	0.009173	0.009173	0.499172	0.500828	0.595239
686.00	0.009159	0.009159	0.009159	0.435568	0.564432	0.496236
687.00	0.009146	0.009146	0.009146	0.386363	0.613637	0.409503
688.00	0.009133	0.009133	0.009133	0.348945	0.651055	0.332177
689.00	0.009119	0.009119	0.009119	0.321061	0.678939	0.261942
690.00	0.009106	0.009106	0.009106	0.300967	0.699033	0.196930
691.00	0.009093	0.009093	0.009093	0.287401	0.712599	0.135599
692.00	0.009080	0.009080	0.009080	0.279521	0.720479	0.076641
693.00	0.009067	0.009067	0.009067	0.276841	0.723159	0.018889
694.00	0.009054	0.009054	0.009054	0.279192	0.720808	-0.038753
695.00	0.009041	0.009041	0.009041	0.286712	0.713288	-0.097379
696.00	0.009028	0.009028	0.009028	0.299848	0.700152	-0.158150
697.00	0.009015	0.009015	0.009015	0.319404	0.680596	-0.222373
698.00	0.009002	0.009002	0.009002	0.346587	0.653413	-0.291581
699.00	0.008989	0.008989	0.008989	0.383078	0.616922	-0.367642
700.00	0.008976	0.008976	0.008976	0.431053	0.568947	-0.452880
701.00	0.008963	0.008963	0.008963	0.493040	0.506960	-0.550191
702.00	0.008950	0.008950	0.008950	0.571334	0.428666	-0.663101
703.00	0.008938	0.008938	0.008938	0.666395	0.333605	-0.795612
704.00	0.008925	0.008925	0.008925	0.773508	0.226492	-0.951516
705.00	0.008912	0.008912	0.008912	0.877959	0.122041	-1.132753
706.00	0.008900	0.008900	0.008900	0.953003	0.046997	-1.336751
707.00	0.008887	0.008887	0.008887	0.969500	0.030500	-1.554267
708.00	0.008875	0.008875	0.008875	0.917057	0.082943	1.370832
709.00	0.008862	0.008862	0.008862	0.814090	0.185910	1.169579
710.00	0.008850	0.008850	0.008850	0.692366	0.307634	0.992151
711.00	0.008837	0.008837	0.008837	0.576547	0.423453	0.840570
712.00	0.008825	0.008825	0.008825	0.477980	0.522020	0.712645
713.00	0.008812	0.008812	0.008812	0.398702	0.601298	0.604558
714.00	0.008800	0.008800	0.008800	0.336580	0.663420	0.512400
715.00	0.008788	0.008788	0.008788	0.288373	0.711627	0.432785
716.00	0.008775	0.008775	0.008775	0.251025	0.748975	0.362983
717.00	0.008763	0.008763	0.008763	0.222042	0.777958	0.300850
718.00	0.008751	0.008751	0.008751	0.199513	0.800487	0.244717
719.00	0.008739	0.008739	0.008739	0.182010	0.817990	0.193278
720.00	0.008727	0.008727	0.008727	0.168483	0.831517	0.145502
721.00	0.008715	0.008715	0.008715	0.158164	0.841836	0.100560
722.00	0.008702	0.008702	0.008702	0.150497	0.849503	0.057770
723.00	0.008690	0.008690	0.008690	0.145086	0.854914	0.016561
724.00	0.008678	0.008678	0.008678	0.141660	0.858340	-0.023564
725.00	0.008666	0.008666	0.008666	0.140048	0.859952	-0.063046
726.00	0.008655	0.008655	0.008655	0.140160	0.859840	-0.102297
727.00	0.008643	0.008643	0.008643	0.141986	0.858014	-0.141712
728.00	0.008631	0.008631	0.008631	0.145588	0.854412	-0.181687
729.00	0.008619	0.008619	0.008619	0.151104	0.848896	-0.222636
730.00	0.008607	0.008607	0.008607	0.158762	0.841238	-0.265006
731.00	0.008595	0.008595	0.008595	0.168894	0.831106	-0.309295
732.00	0.008584	0.008584	0.008584	0.181959	0.818041	-0.356079
733.00	0.008572	0.008572	0.008572	0.198582	0.801418	-0.406037
734.00	0.008560	0.008560	0.008560	0.219597	0.780403	-0.459984
735.00	0.008549	0.008549	0.008549	0.246109	0.753891	-0.518918
736.00	0.008537	0.008537	0.008537	0.279558	0.720442	-0.584072
737.00	0.008525	0.008525	0.008525	0.321780	0.678220	-0.656977
738.00	0.008514	0.008514	0.008514	0.375008	0.624992	-0.739526
739.00	0.008502	0.008502	0.008502	0.441712	0.558288	-0.834010
740.00	0.008491	0.008491	0.008491	0.524035	0.475965	-0.943084
741.00	0.008479	0.008479	0.008479	0.622468	0.377532	-1.069537
742.00	0.008468	0.008468	0.008468	0.733355	0.266645	-1.215691
743.00	0.008457	0.008457	0.008457	0.845646	0.154354	-1.382259
744.00	0.008445	0.008445	0.008445	0.939569	0.060431	-1.566794
745.00	0.008434	0.008434	0.008434	0.992001	0.007999	1.378958
746.00	0.008423	0.008423	0.008423	0.989063	0.010937	1.181836
747.00	0.008411	0.008411	0.008411	0.935485	0.064515	0.993744
748.00	0.008400	0.008400	0.008400	0.850319	0.149681	0.822002
749.00	0.008389	0.008389	0.008389	0.754531	0.245469	0.669680
750.00	0.008378	0.008378	0.008378	0.662669	0.337331	0.536444
751.00	0.008366	0.008366	0.008366	0.581807	0.418193	0.420109
752.00	0.008355	0.008355	0.008355	0.513920	0.486080	0.317867
753.00	0.008344	0.008344	0.008344	0.458404	0.541596	0.226974
754.00	0.008333	0.008333	0.008333	0.413682	0.586318	0.145016
755.00	0.008322	0.008322	0.008322	0.378008	0.621992	0.069974
756.00	0.008311	0.008311	0.008311	0.349801	0.650199	0.000188
757.00	0.008300	0.008300	0.008300	0.327748	0.672252	-0.065705
758.00	0.008289	0.008289	0.008289	0.310799	0.689201	-0.128833
759.00	0.008278	0.008278	0.008278	0.298141	0.701859	-0.190147
760.00	0.008267	0.008267	0.008267	0.289147	0.710853	-0.250461
761.00	0.008256	0.008256	0.008256	0.283340	0.716660	-0.310495
762.00	0.008246	0.008246	0.008246	0.280360	0.719640	-0.370894
763.00	0.008235	0.008235	0.008235	0.279930	0.720070	-0.432251
764.00	0.008224	0.008224	0.008224	0.281831	0.718169	-0.495123
765.00	0.008213	0.008213	0.008213	0.285882	0.714118	-0.560034
766.00	0.008203	0.008203	0.008203	0.291909	0.708091	-0.627477
767.00	0.008192	0.008192	0.008192	0.299722	0.700278	-0.697911
768.00	0.008181	0.008181	0.008181	0.309086	0.690914	-0.771745
769.00	0.008171	0.008171	0.008171	0.319695	0.680305	-0.849319
770.00	0.008160	0.008160	0.008160	0.331139	0.668861	-0.930874
771.00	0.008149	0.008149	0.008149	0.342890	0.657110	-1.016512
772.00	0.008139	0.008139	0.008139	0.354298	0.645702	-1.106162
773.00	0.008128	0.008128	0.008128	0.364617	0.635383	-1.199537
774.00	0.008118	0.008118	0.008118	0.373061	0.626939	-1.296117
775.00	0.008107	0.008107	0.008107	0.378902	0.621098	-1.395144
776.00	0.008097	0.008097	0.008097	0.381574	0.618426	-1.495660
777.00	0.008086	0.008086	0.008086	0.380776	0.619224	1.545026
778.00	0.008076	0.008076	0.008076	0.376526	0.623474	1.444866
779.00	0.008066	0.008066	0.008066	0.369160	0.630840	1.346540
780.00	0.008055	0.008055	0.008055	0.359260	0.640740	1.250988
781.00	0.008045	0.008045	0.008045	0.347554	0.652446	1.158945
782.00	0.008035	0.008035	0.008035	0.334808	0.665192	1.070913
783.00	0.008025	0.008025	0.008025	0.321733	0.678267	0.987165
784.00	0.008014	0.008014	0.008014	0.308932	0.691068	0.907770
785.00	0.008004	0.008004	0.008004	0.296881	0.703119	0.832635
786.00	0.007994	0.007994	0.007994	0.285928	0.714072	0.761541
787.00	0.007984	0.007984	0.007984	0.276318	0.723682	0.694185
788.00	0.007974	0.007974	0.007974	0.268211	0.731789	0.630209
789.00	0.007963	0.007963	0.007963	0.261716	0.738284	0.569222
790.00	0.007953	0.007953	0.007953	0.256907	0.743093	0.510819
791.00	0.007943	0.007943	0.007943	0.253845	0.746155	0.454584
792.00	0.007933	0.007933	0.007933	0.252596	0.747404	0.400101
793.00	0.007923	0.007923	0.007923	0.253243	0.746757	0.346952
794.00	0.007913	0.007913	0.007913	0.255899	0.744101	0.294710
795.00	0.007903	0.007903	0.007903	0.260717	0.739283	0.242940
796.00	0.007893	0.007893	0.007893	0.267906	0.732094	0.191186
797.00	0.007884	0.007884	0.007884	0.277741	0.722259	0.138962
798.00	0.007874	0.007874	0.007874	0.290582	0.709418	0.085739
799.00	0.007864	0.007864	0.007864	0.306890	0.693110	0.030927
800.00	0.007854	0.007854	0.007854	0.327251	0.672749	-0.026142
801.00	0.007844	0.007844	0.007844	0.352397	0.647603	-0.086243
802.00	0.007834	0.007834	0.007834	0.383222	0.616778	-0.150282
803.00	0.007825	0.007825	0.007825	0.420788	0.579212	-0.219328
804.00	0.007815	0.007815	0.007815	0.466282	0.533718	-0.294644
805.00	0.007805	0.007805	0.007805	0.520897	0.479103	-0.377706
806.00	0.007796	0.007796	0.007796	0.585540	0.414460	-0.470195
807.00	0.007786	0.007786	0.007786	0.660261	0.339739	-0.573916
808.00	0.007776	0.007776	0.007776	0.743277	0.256723	-0.690605
809.00	0.007767	0.007767	0.007767	0.829628	0.170372	-0.821526
810.00	0.007757	0.007757	0.007757	0.909993	0.090007	-0.966844
811.00	0.007747	0.007747	0.007747	0.971034	0.028966	-1.124868
812.00	0.007738	0.007738	0.007738	0.998845	0.001155	-1.291555
813.00	0.007728	0.007728	0.007728	0.985136	0.014864	-1.460810
814.00	0.007719	0.007719	0.007719	0.932019	0.067981	1.515789
815.00	0.007709	0.007709	0.007709	0.850988	0.149012	1.360900
816.00	0.007700	0.007700	0.007700	0.756976	0.243024	1.219795
817.00	0.007691	0.007691	0.007691	0.662560	0.337440	1.093845
818.00	0.007681	0.007681	0.007681	0.575537	0.424463	0.982682
819.00	0.007672	0.007672	0.007672	0.499384	0.500616	0.884959
820.00	0.007662	0.007662	0.007662	0.434745	0.565255	0.798939
821.00	0.007653	0.007653	0.007653	0.380804	0.619196	0.722865
822.00	0.007644	0.007644	0.007644	0.336172	0.663828	0.655129
823.00	0.007634	0.007634	0.007634	0.299369	0.700631	0.594342
824.00	0.007625	0.007625	0.007625	0.269036	0.730964	0.539331
825.00	0.007616	0.007616	0.007616	0.244014	0.755986	0.489123
826.00	0.007607	0.007607	0.007607	0.223347	0.776653	0.442914
827.00	0.007598	0.007598	0.007598	0.206266	0.793734	0.400038
828.00	0.007588	0.007588	0.007588	0.192156	0.807844	0.359941
829.00	0.007579	0.007579	0.007579	0.180530	0.819470	0.322159
830.00	0.007570	0.007570	0.007570	0.171002	0.828998	0.286300
831.00	0.007561	0.007561	0.007561	0.163271	0.836729	0.252029
832.00	0.007552	0.007552	0.007552	0.157102	0.842898	0.219056
833.00	0.007543	0.007543	0.007543	0.152310	0.847690	0.187127
834.00	0.007534	0.007534	0.007534	0.148760	0.851240	0.156013
835.00	0.007525	0.007525	0.007525	0.146348	0.853652	0.125509
836.00	0.007516	0.007516	0.007516	0.145007	0.854993	0.095420
837.00	0.007507	0.007507	0.007507	0.144695	0.855305	0.065566
838.00	0.007498	0.007498	0.007498	0.145397	0.854603	0.035771
839.00	0.007489	0.007489	0.007489	0.147125	0.852875	0.005858
840.00	0.007480	0.007480	0.007480	0.149912	0.850088	-0.024349
841.00	0.007471	0.007471	0.007471	0.153822	0.846178	-0.055034
842.00	0.007462	0.007462	0.007462	0.158946	0.841054	-0.086393
843.00	0.007453	0.007453	0.007453	0.165408	0.834592	-0.118636
844.00	0.007445	0.007445	0.007445	0.173372	0.826628	-0.151996
845.00	0.007436	0.007436	0.007436	0.183044	0.816956	-0.186732
846.00	0.007427	0.007427	0.007427	0.194687	0.805313	-0.223138
847.00	0.007418	0.007418	0.007418	0.208627	0.791373	-0.261552
848.00	0.007409	0.007409	0.007409	0.225270	0.774730	-0.302366
849.00	0.007401	0.007401	0.007401	0.245115	0.754885	-0.346036
850.00	0.007392	0.007392	0.007392	0.268769	0.731231	-0.393100
851.00	0.007383	0.007383	0.007383	0.296964	0.703036	-0.444190
852.00	0.007375	0.007375	0.007375	0.330557	0.669443	-0.500051
853.00	0.007366	0.007366	0.007366	0.370520	0.629480	-0.561552
854.00	0.007357	0.007357	0.007357	0.417875	0.582125	-0.629696
855.00	0.007349	0.007349	0.007349	0.473557	0.526443	-0.705609
856.00	0.007340	0.007340	0.007340	0.538136	0.461864	-0.790497
857.00	0.007332	0.007332	0.007332	0.611339	0.388661	-0.885543
858.00	0.007323	0.007323	0.007323	0.691348	0.308652	-0.991722
859.00	0.007315	0.007315	0.007315	0.773979	0.226021	-1.109498
860.00	0.007306	0.007306	0.007306	0.852149	0.147851	-1.238430
861.00	0.007298	0.007298	0.007298	0.916374	0.083626	-1.376798
862.00	0.007289	0.007289	0.007289	0.956919	0.043081	-1.521443
863.00	0.007281	0.007281	0.007281	0.967205	0.032795	1.473530
864.00	0.007272	0.007272	0.007272	0.946564	0.053436	1.329624
865.00	0.007264	0.007264	0.007264	0.900374	0.099626	1.192566
866.00	0.007255	0.007255	0.007255	0.837521	0.162479	1.065255
867.00	0.007247	0.007247	0.007247	0.767121	0.232879	0.949153
868.00	0.007239	0.007239	0.007239	0.696341	0.303659	0.844498
869.00	0.007230	0.007230	0.007230	0.629759	0.370241	0.750700
870.00	0.007222	0.007222	0.007222	0.569720	0.430280	0.666722
871.00	0.007214	0.007214	0.007214	0.517032	0.482968	0.591358
872.00	0.007205	0.007205	0.007205	0.471598	0.528402	0.523404
873.00	0.007197	0.007197	0.007197	0.432863	0.567137	0.461746
874.00	0.007189	0.007189	0.007189	0.400103	0.599897	0.405395
875.00	0.007181	0.007181	0.007181	0.372569	0.627431	0.353494
876.00	0.007173	0.007173	0.007173	0.349570	0.650430	0.305306
877.00	0.007164	0.007164	0.007164	0.330498	0.669502	0.260202
878.00	0.007156	0.007156	0.007156	0.314842	0.685158	0.217643
879.00	0.007148	0.007148	0.007148	0.302179	0.697821	0.177164
880.00	0.007140	0.007140	0.007140	0.292168	0.707832	0.138360
881.00	0.007132	0.007132	0.007132	0.284539	0.715461	0.100876
882.00	0.007124	0.007124	0.007124	0.279087	0.720913	0.064394
883.00	0.007116	0.007116	0.007116	0.275661	0.724339	0.028625
884.00	0.007108	0.007108	0.007108	0.274160	0.725840	-0.006701
885.00	0.007100	0.007100	0.007100	0.274529	0.725471	-0.041837
886.00	0.007092	0.007092	0.007092	0.276756	0.723244	-0.077029
887.00	0.007084	0.007084	0.007084	0.280869	0.719131	-0.112522
888.00	0.007076	0.007076	0.007076	0.286939	0.713061	-0.148563
889.00	0.007068	0.007068	0.007068	0.295077	0.704923	-0.185410
890.00	0.007060	0.007060	0.007060	0.305441	0.694559	-0.223333
891.00	0.007052	0.007052	0.007052	0.318236	0.681764	-0.262624
892.00	0.007044	0.007044	0.007044	0.333719	0.666281	-0.303602
893.00	0.007036	0.007036	0.007036	0.352199	0.647801	-0.346619
894.00	0.007028	0.007028	0.007028	0.374046	0.625954	-0.392067
895.00	0.007020	0.007020	0.007020	0.399680	0.600320	-0.440385
896.00	0.007012	0.007012	0.007012	0.429567	0.570433	-0.492063
897.00	0.007005	0.007005	0.007005	0.464199	0.535801	-0.547651
898.00	0.006997	0.006997	0.006997	0.504044	0.495956	-0.607756
899.00	0.006989	0.006989	0.006989	0.549477	0.450523	-0.673031
900.00	0.006981	0.006981	0.006981	0.600651	0.399349	-0.744166
901.00	0.006974	0.006974	0.006974	0.657311	0.342689	-0.821838
902.00	0.006966	0.006966	0.006966	0.718540	0.281460	-0.906654
903.00	0.006958	0.006958	0.006958	0.782461	0.217539	-0.999050
904.00	0.006950	0.006950	0.006950	0.845978	0.154022	-1.099156
905.00	0.006943	0.006943	0.006943	0.904708	0.095292	-1.206642
906.00	0.006935	0.006935	0.006935	0.953313	0.046687	-1.320580
907.00	0.006927	0.006927	0.006927	0.986370	0.013630	-1.439377
908.00	0.006920	0.006920	0.006920	0.999660	0.000340	-1.560846
909.00	0.006912	0.006912	0.006912	0.991405	0.008595	1.459158
910.00	0.006905	0.006905	0.006905	0.962837	0.037163	1.340022
911.00	0.006897	0.006897	0.006897	0.917786	0.082214	1.225585
912.00	0.006889	0.006889	0.006889	0.861509	0.138491	1.117518
913.00	0.006882	0.006882	0.006882	0.799383	0.200617	1.016829
914.00	0.006874	0.006874	0.006874	0.735957	0.264043	0.923916
915.00	0.006867	0.006867	0.006867	0.674537	0.325463	0.838698
916.00	0.006859	0.006859	0.006859	0.617195	0.382805	0.760774
917.00	0.006852	0.006852	0.006852	0.565008	0.434992	0.689559
918.00	0.006844	0.006844	0.006844	0.518346	0.481654	0.624385
919.00	0.006837	0.006837	0.006837	0.477133	0.522867	0.564572
920.00	0.006830	0.006830	0.006830	0.441040	0.558960	0.509471
921.00	0.006822	0.006822	0.006822	0.409623	0.590377	0.458482
922.00	0.006815	0.006815	0.006815	0.382398	0.617602	0.411064
923.00	0.006807	0.006807	0.006807	0.358896	0.641104	0.366734
924.00	0.006800	0.006800	0.006800	0.338682	0.661318	0.325068
925.00	0.006793	0.006793	0.006793	0.321369	0.678631	0.285692
926.00	0.006785	0.006785	0.006785	0.306623	0.693377	0.248275
927.00	0.006778	0.006778	0.006778	0.294153	0.705847	0.212527
928.00	0.006771	0.006771	0.006771	0.283720	0.716280	0.178188
929.00	0.006763	0.006763	0.006763	0.275120	0.724880	0.145029
930.00	0.006756	0.006756	0.006756	0.268188	0.731812	0.112841
931.00	0.006749	0.006749	0.006749	0.262791	0.737209	0.081435
932.00	0.006742	0.006742	0.006742	0.258826	0.741174	0.050636
933.00	0.006734	0.006734	0.006734	0.256213	0.743787	0.020282
934.00	0.006727	0.006727	0.006727	0.254899	0.745101	-0.009781
935.00	0.006720	0.006720	0.006720	0.254851	0.745149	-0.039701
936.00	0.006713	0.006713	0.006713	0.256058	0.743942	-0.069621
937.00	0.006706	0.006706	0.006706	0.258528	0.741472	-0.099684
938.00	0.006698	0.006698	0.006698	0.262290	0.737710	-0.130033
939.00	0.006691	0.006691	0.006691	0.267393	0.732607	-0.160815
940.00	0.006684	0.006684	0.006684	0.273908	0.726092	-0.192181
941.00	0.006677	0.006677	0.006677	0.281928	0.718072	-0.224291
942.00	0.006670	0.006670	0.006670	0.291569	0.708431	-0.257313
943.00	0.006663	0.006663	0.006663	0.302973	0.697027	-0.291430
944.00	0.006656	0.006656	0.006656	0.316311	0.683689	-0.326839
945.00	0.006649	0.006649	0.006649	0.331780	0.668220	-0.363755
946.00	0.006642	0.006642	0.006642	0.349608	0.650392	-0.402414
947.00	0.006635	0.006635	0.006635	0.370055	0.629945	-0.443076
948.00	0.006628	0.006628	0.006628	0.393404	0.606596	-0.486027
949.00	0.006621	0.006621	0.006621	0.419963	0.580037	-0.531581
950.00	0.006614	0.006614	0.006614	0.450043	0.549957	-0.580081
951.00	0.006607	0.006607	0.006607	0.483944	0.516056	-0.631900
952.00	0.006600	0.006600	0.006600	0.521916	0.478084	-0.687432
953.00	0.006593	0.006593	0.006593	0.564104	0.435896	-0.747087
954.00	0.006586	0.006586	0.006586	0.610475	0.389525	-0.811275
955.00	0.006579	0.006579	0.006579	0.660710	0.339290	-0.880378
956.00	0.006572	0.006572	0.006572	0.714085	0.285915	-0.954717
957.00	0.006566	0.006566	0.006566	0.769337	0.230663	-1.034497
958.00	0.006559	0.006559	0.006559	0.824561	0.175439	-1.119754
959.00	0.006552	0.006552	0.006552	0.877188	0.122812	-1.210281
960.00	0.006545	0.006545	0.006545	0.924112	0.075888	-1.305572
961.00	0.006538	0.006538	0.006538	0.962009	0.037991	-1.404788
962.00	0.006531	0.006531	0.006531	0.987842	0.012158	-1.506768
963.00	0.006525	0.006525	0.006525	0.999443	0.000557	1.531496
964.00	0.006518	0.006518	0.006518	0.995977	0.004023	1.428364
965.00	0.006511	0.006511	0.006511	0.978123	0.021877	1.326957
966.00	0.006504	0.006504	0.006504	0.947892	0.052108	1.228629
967.00	0.006498	0.006498	0.006498	0.908161	0.091839	1.134460
968.00	0.006491	0.006491	0.006491	0.862112	0.137888	1.045197
969.00	0.006484	0.006484	0.006484	0.812748	0.187252	0.961261
970.00	0.006478	0.006478	0.006478	0.762584	0.237416	0.882787
971.00	0.006471	0.006471	0.006471	0.713524	0.286476	0.809688
972.00	0.006464	0.006464	0.006464	0.666873	0.333127	0.741722
973.00	0.006458	0.006458	0.006458	0.623430	0.376570	0.678546
974.00	0.006451	0.006451	0.006451	0.583600	0.416400	0.619769
975.00	0.006444	0.006444	0.006444	0.547512	0.452488	0.564978
976.00	0.006438	0.006438	0.006438	0.515112	0.484888	0.513767
977.00	0.006431	0.006431	0.006431	0.486233	0.513767	0.465747
978.00	0.006425	0.006425	0.006425	0.460650	0.539350	0.420554
979.00	0.006418	0.006418	0.006418	0.438113	0.561887	0.377852
980.00	0.006411	0.006411	0.006411	0.418369	0.581631	0.337337
981.00	0.006405	0.006405	0.006405	0.401177	0.598823	0.298730
982.00	0.006398	0.006398	0.006398	0.386316	0.613684	0.261780
983.00	0.006392	0.006392	0.006392	0.373586	0.626414	0.226258
984.00	0.006385	0.006385	0.006385	0.362813	0.637187	0.191957
985.00	0.006379	0.006379	0.006379	0.353848	0.646152	0.158687
986.00	0.006372	0.006372	0.006372	0.346563	0.653437	0.126273
987.00	0.006366	0.006366	0.006366	0.340854	0.659146	0.094553
988.00	0.006359	0.006359	0.006359	0.336638	0.663362	0.063375
989.00	0.006353	0.006353	0.006353	0.333851	0.666149	0.032596
990.00	0.006347	0.006347	0.006347	0.332448	0.667552	0.002079
991.00	0.006340	0.006340	0.006340	0.332402	0.667598	-0.028308
992.00	0.006334	0.006334	0.006334	0.333702	0.666298	-0.058695
993.00	0.006327	0.006327	0.006327	0.336355	0.663645	-0.089211
994.00	0.006321	0.006321	0.006321	0.340384	0.659616	-0.119985
995.00	0.006315	0.006315	0.006315	0.345828	0.654172	-0.151149
996.00	0.006308	0.006308	0.006308	0.352743	0.647257	-0.182838
997.00	0.006302	0.006302	0.006302	0.361202	0.638798	-0.215192
998.00	0.006296	0.006296	0.006296	0.371295	0.628705	-0.248361
999.00	0.006289	0.006289	0.006289	0.383129	0.616871	-0.282499
1000.00	0.006283	0.006283	0.006283	0.396830	0.603170	-0.317774
